# SS composition, CD spectra
250.0000 -0.1291
249.0000 -0.1589
248.0000 -0.1934
247.0000 -0.2484
246.0000 -0.3487
245.0000 -0.4896
244.0000 -0.6377
243.0000 -0.8233
242.0000 -1.0943
241.0000 -1.3983
240.0000 -1.7774
239.0000 -2.2920
238.0000 -2.8586
237.0000 -3.5159
236.0000 -4.2528
235.0000 -5.0554
234.0000 -5.9571
233.0000 -6.9761
232.0000 -8.0982
231.0000 -9.2803
230.0000 -10.4943
229.0000 -11.6690
228.0000 -12.7816
227.0000 -13.7932
226.0000 -14.7096
225.0000 -15.4813
224.0000 -16.0915
223.0000 -16.5476
222.0000 -16.8558
221.0000 -17.0200
220.0000 -17.0750
219.0000 -17.0443
218.0000 -16.9164
217.0000 -16.7854
216.0000 -16.6364
215.0000 -16.4838
214.0000 -16.3612
213.0000 -16.3048
212.0000 -16.2848
211.0000 -16.3643
210.0000 -16.4219
209.0000 -16.2974
208.0000 -15.7528
207.0000 -14.6075
206.0000 -12.7480
205.0000 -10.2747
204.0000 -7.2508
203.0000 -3.7858
202.0000 0.0542
201.0000 4.3139
200.0000 8.9593
